# wireless pH sensor data log
# Date: 20171019_20_56_52
# Temperature (â„ƒ), Voltage of RE (mV), Voltage of WE_Cl after TIA (mV), Voltage of WE_pH (mV), Free Cl Current (nA), pH Voltage (mV), Free Cl (ppm), pH Value
# 
25.37    1499.5    1499.625    1241.125    -0.1524390243902439    -258.375    -0.219393130307    6.14
25.44    1499.5    1499.625    1227.0    -0.1524390243902439    -272.5    -0.23063340927    6.57
-1000.0    1499.5    1499.375    1230.75    0.1524390243902439    -268.75    -0.269605858439    7.02
-1000.0    1499.5    1499.625    1239.5    -0.1524390243902439    -260.0    -0.391466035481    7.5
-1000.0    1499.375    1499.625    1239.375    -0.3048780487804878    -260.0    -0.734922578572    7.96
-1000.0    1499.5    1499.625    1235.25    -0.1524390243902439    -264.25    -1.76110812657    8.43
-1000.0    1499.5    1499.75    1236.125    -0.3048780487804878    -263.375    -4.78965893361    8.9
-1000.0    1499.375    1499.625    1239.25    -0.3048780487804878    -260.125    -13.7306393153    9.37
-1000.0    1499.5    1499.75    1240.125    -0.3048780487804878    -259.375    -39.2159826532    9.83
-1000.0    1499.5    1499.75    1240.375    -0.3048780487804878    -259.125    -112.736823347    10.29
-1000.0    1499.375    1499.75    1250.5    -0.4573170731707317    -248.875    -332.393446639    10.76
-1000.0    1499.5    1499.625    1254.75    -0.1524390243902439    -244.75    -317.53085416    10.74
-1000.0    1499.375    1499.625    1254.25    -0.3048780487804878    -245.125    -283.022468601    10.69
-1000.0    1499.375    1499.75    1251.25    -0.4573170731707317    -248.125    -258.245490657    10.65
-1000.0    1499.375    1499.75    1256.375    -0.4573170731707317    -243.0    -246.700402856    10.63
-1000.0    1499.5    1499.75    1255.125    -0.3048780487804878    -244.375    -230.280149139    10.6
-1000.0    1499.375    1499.75    1254.125    -0.4573170731707317    -245.25    -210.065580733    10.56
-1000.0    1499.375    1499.75    1255.125    -0.4573170731707317    -244.25    -196.085798049    10.53
-1000.0    1499.375    1499.75    1255.375    -0.4573170731707317    -244.0    -183.037295073    10.5
-1000.0    1499.375    1499.75    1255.375    -0.4573170731707317    -244.0    -170.858033873    10.47
25.44    1499.5    1499.25    1253.25    0.3048780487804878    -246.25    -158.92952696    10.44
25.44    1499.5    1500.0    1255.75    -0.6097560975609756    -243.75    -154.671019656    10.43
-1000.0    1499.375    1499.75    1256.125    -0.4573170731707317    -243.25    -154.735369747    10.43
-1000.0    1499.5    1499.625    1256.375    -0.1524390243902439    -243.125    -154.756819777    10.43
-1000.0    1499.375    1499.75    1256.0    -0.4573170731707317    -243.375    -151.196877778    10.42
-1000.0    1499.5    1499.75    1255.875    -0.3048780487804878    -243.625    -151.196877778    10.42
-1000.0    1499.375    1499.875    1255.0    -0.6097560975609756    -244.375    -151.196877778    10.42
-1000.0    1499.375    1499.75    1252.75    -0.4573170731707317    -246.625    -147.78037939    10.41
-1000.0    1499.5    1499.75    1251.75    -0.3048780487804878    -247.75    -151.217840194    10.42
-1000.0    1499.5    1499.75    1256.75    -0.3048780487804878    -242.75    -154.713919717    10.43
-1000.0    1499.5    1499.75    1256.375    -0.3048780487804878    -243.125    -151.175915362    10.42
-1000.0    1499.5    1499.75    1256.875    -0.3048780487804878    -242.625    -151.259765027    10.42
-0.06    1499.5    1499.375    1257.25    0.1524390243902439    -242.25    -151.217840194    10.42
-1000.0    1499.5    1499.75    1251.875    -0.3048780487804878    -247.625    -147.698435782    10.41
-1000.0    1499.375    1499.75    1257.625    -0.4573170731707317    -241.75    -151.154952945    10.42
-1000.0    1499.375    1499.75    1256.5    -0.4573170731707317    -242.875    -151.154952945    10.42
25.44    1499.5    1499.375    1255.5    0.1524390243902439    -244.0    -147.234250309    10.41
-1000.0    1499.5    1499.25    1249.0    0.3048780487804878    -250.5    -147.132171031    10.41
-1000.0    1499.5    1499.5    1248.0    0.0    -251.5    -150.450133673    10.42
