# wireless pH sensor data log
# Date: 20171019_21_03_14
# Temperature (â„ƒ), Voltage of RE (mV), Voltage of WE_Cl after TIA (mV), Voltage of WE_pH (mV), Free Cl Current (nA), pH Voltage (mV), Free Cl (ppm), pH Value
# 
25.5    1499.5    1499.5    1271.5    0.0    -228.0    -0.219393130307    6.14
25.44    1499.5    1499.5    1233.0    0.0    -266.5    -0.228185934373    6.52
-1000.0    1499.5    1499.375    1234.625    0.1524390243902439    -264.875    -0.261653349928    6.96
-1000.0    1499.375    1499.5    1240.25    -0.1524390243902439    -259.125    -0.364130064227    7.43
-1000.0    1499.5    1499.625    1239.5    -0.1524390243902439    -260.0    -0.656342982659    7.89
-1000.0    1499.375    1499.625    1244.125    -0.3048780487804878    -255.25    -1.49915664482    8.35
-1000.0    1499.375    1499.75    1243.375    -0.4573170731707317    -256.0    -3.9306874753    8.81
-1000.0    1499.5    1499.625    1241.875    -0.1524390243902439    -257.625    -10.9466602398    9.27
-1000.0    1499.375    1499.625    1243.5    -0.3048780487804878    -255.875    -30.4755596305    9.72
-1000.0    1499.375    1499.75    1243.5    -0.4573170731707317    -255.875    -87.5224407811    10.18
-1000.0    1499.375    1499.75    1243.625    -0.4573170731707317    -255.75    -252.128045286    10.64
-1000.0    1499.5    1499.625    1243.75    -0.1524390243902439    -255.75    -282.984594409    10.69
-1000.0    1499.375    1499.75    1242.75    -0.4573170731707317    -256.625    -270.295131637    10.67
-1000.0    1499.375    1499.625    1243.0    -0.3048780487804878    -256.375    -258.28257517    10.65
-1000.0    1499.375    1499.5    1237.0    -0.1524390243902439    -262.375    -258.318399188    10.65
-1000.0    1499.5    1499.5    1242.625    0.0    -256.875    -258.318399188    10.65
-1000.0    1499.375    1499.625    1231.25    -0.3048780487804878    -268.125    -258.246751152    10.65
-1000.0    1499.5    1499.625    1239.875    -0.1524390243902439    -259.625    -276.663000561    10.68
-0.06    1499.5    1499.25    1241.125    0.3048780487804878    -258.375    -276.663000561    10.68
-1000.0    1499.375    1499.625    1242.5    -0.3048780487804878    -256.875    -276.509464372    10.68
-1000.0    1499.375    1499.75    1239.75    -0.4573170731707317    -259.625    -282.906039511    10.69
-1000.0    1499.5    1499.75    1242.75    -0.3048780487804878    -256.75    -282.906039511    10.69
-1000.0    1499.375    1499.75    1240.625    -0.4573170731707317    -258.75    -282.94531696    10.69
-1000.0    1499.375    1499.75    1239.5    -0.4573170731707317    -259.875    -289.531079813    10.7
-1000.0    1499.375    1499.625    1240.375    -0.3048780487804878    -259.0    -289.571271474    10.7
-1000.0    1499.375    1499.75    1240.5    -0.4573170731707317    -258.875    -289.611463135    10.7
-1000.0    1499.375    1499.75    1239.625    -0.4573170731707317    -259.75    -289.732038118    10.7
-1000.0    1499.375    1499.625    1240.625    -0.3048780487804878    -258.75    -283.180981655    10.69
-1000.0    1499.375    1499.75    1240.375    -0.4573170731707317    -259.0    -283.220259104    10.69
-1000.0    1499.375    1499.75    1237.125    -0.4573170731707317    -262.25    -283.41664635    10.69
